File: data/XRD_Air.xy
10.0000	151.0000
10.2594	158.0000
10.5187	152.0000
10.7781	158.0000
11.0374	132.0000
11.2968	118.0000
11.5561	143.0000
11.8155	134.0000
12.0748	116.0000
12.3342	135.0000
12.5935	113.0000
12.8529	127.0000
13.1122	138.0000
13.3716	123.0000
13.6309	108.0000
13.8903	124.0000
14.1496	113.0000
14.4090	96.0000
14.6683	127.0000
14.9277	100.0000
15.1870	97.0000
15.4464	92.0000
15.7057	115.0000
15.9651	117.0000
16.2244	104.0000
16.4838	127.0000
16.7431	118.0000
17.0025	104.0000
17.2618	104.0000
17.5212	109.0000
17.7805	109.0000
18.0399	100.0000
18.2992	128.0000
18.5586	2456
18.8179	383.0000
19.0773	123.0000
19.3366	92.0000
19.5960	90.0000
19.8553	93.0000
20.1147	97.0000
20.3740	116.0000
20.6334	295.0000
20.8927	190.0000
21.1521	173.0000
21.4114	196.0000
21.6708	160.0000
21.9301	120.0000
22.1895	103.0000
22.4488	115.0000
22.7082	99.0000
22.9675	109.0000
23.2269	129.0000
23.4863	116.0000
23.7456	119.0000
24.0050	129.0000
24.2643	102.0000
24.5237	112.0000
24.7830	93.0000
25.0424	83.0000
25.3017	65.0000
25.5611	67.0000
25.8204	81.0000
26.0798	71.0000
26.3391	65.0000
26.5985	73.0000
26.8578	75.0000
27.1172	79.0000
27.3765	79.0000
27.6359	77.0000
27.8952	91.0000
28.1546	70.0000
28.4139	82.0000
28.6733	73.0000
28.9326	50.0000
29.1920	66.0000
29.4513	65.0000
29.7107	54.0000
29.9700	58.0000
30.2294	67.0000
30.4887	52.0000
30.7481	65.0000
31.0074	58.0000
31.2668	71.0000
31.5261	70.0000
31.7855	67.0000
32.0448	53.0000
32.3042	62.0000
32.5635	55.0000
32.8229	83.0000
33.0822	62.0000
33.3416	54.0000
33.6009	49.0000
33.8603	61.0000
34.1196	46.0000
34.3790	68.0000
34.6383	45.0000
34.8977	64.0000
35.1570	47.0000
35.4164	40.0000
35.6757	66.0000
35.9351	328.0000
36.1944	402.0000
36.4538	844.0000
36.7132	113.0000
36.9725	52.0000
37.2319	62.0000
37.4912	68.0000
37.7506	130.0000
38.0099	90.0000
38.2693	71.0000
38.5286	42.0000
38.7880	41.0000
39.0473	42.0000
39.3067	64.0000
39.5660	39.0000
39.8254	52.0000
40.0847	51.0000
40.3441	51.0000
40.6034	42.0000
40.8628	44.0000
41.1221	41.0000
41.3815	34.0000
41.6408	63.0000
41.9002	57.0000
42.1595	55.0000
42.4189	63.0000
42.6782	68.0000
42.9376	61.0000
43.1969	74.0000
43.4563	145.0000
43.7156	418.0000
43.9750	1009
44.2343	1608
44.4937	179.0000
44.7530	67.0000
45.0124	65.0000
45.2717	52.0000
45.5311	60.0000
45.7904	61.0000
46.0498	43.0000
46.3091	51.0000
46.5685	47.0000
46.8278	47.0000
47.0872	53.0000
47.3465	53.0000
47.6059	37.0000
47.8652	78.0000
48.1246	144.0000
48.3839	196.0000
48.6433	69.0000
48.9026	57.0000
49.1620	51.0000
49.4213	60.0000
49.6807	57.0000
49.9401	51.0000
50.1994	45.0000
50.4588	49.0000
50.7181	45.0000
50.9775	35.0000
51.2368	56.0000
51.4962	33.0000
51.7555	50.0000
52.0149	48.0000
52.2742	52.0000
52.5336	63.0000
52.7929	53.0000
53.0523	68.0000
53.3116	49.0000
53.5710	53.0000
53.8303	54.0000
54.0897	54.0000
54.3490	49.0000
54.6084	54.0000
54.8677	50.0000
55.1271	58.0000
55.3864	54.0000
55.6458	58.0000
55.9051	60.0000
56.1645	76.0000
56.4238	87.0000
56.6832	75.0000
56.9425	84.0000
57.2019	82.0000
57.4612	78.0000
57.7206	119.0000
57.9799	221.0000
58.2393	281.0000
58.4986	113.0000
58.7580	76.0000
59.0173	63.0000
59.2767	68.0000
59.5360	72.0000
59.7954	60.0000
60.0547	61.0000
60.3141	54.0000
60.5734	63.0000
60.8328	52.0000
61.0921	61.0000
61.3515	68.0000
61.6108	60.0000
61.8702	56.0000
62.1295	66.0000
62.3889	66.0000
62.6482	63.0000
62.9076	61.0000
63.1670	71.0000
63.4263	149.0000
63.6857	400.0000
63.9450	466.0000
64.2044	229.0000
64.4637	384.0000
64.7231	151.0000
64.9824	77.0000
65.2418	61.0000
65.5011	74.0000
65.7605	61.0000
66.0198	52.0000
66.2792	72.0000
66.5385	69.0000
66.7979	96.0000
67.0572	101.0000
67.3166	118.0000
67.5759	175.0000
67.8353	185.0000
68.0946	67.0000
68.3540	60.0000
68.6133	63.0000
68.8727	68.0000
69.1320	65.0000
69.3914	56.0000
69.6507	56.0000
69.9101	56.0000
70.1694	49.0000
70.4288	63.0000
70.6881	62.0000
70.9475	54.0000
71.2068	50.0000
71.4662	49.0000
71.7255	50.0000
71.9849	53.0000
72.2442	39.0000
72.5036	40.0000
72.7629	49.0000
73.0223	59.0000
73.2816	42.0000
73.5410	41.0000
73.8003	58.0000
74.0597	44.0000
74.3190	56.0000
74.5784	47.0000
74.8377	49.0000
75.0971	59.0000
75.3564	68.0000
75.6158	43.0000
75.8751	61.0000
76.1345	68.0000
76.3939	81.0000
76.6532	67.0000
76.9126	60.0000
77.1719	61.0000
77.4313	66.0000
77.6906	39.0000
77.9500	36.0000
78.2093	41.0000
78.4687	42.0000
78.7280	37.0000
78.9874	43.0000
79.2467	26.0000
79.5061	54.0000
79.7654	50.0000
79.9877	58.0000