File: data/XRD_Ar.xy
10.0000	171.0000
10.2594	176.0000
10.5187	185.0000
10.7781	173.0000
11.0374	157.0000
11.2968	147.0000
11.5561	160.0000
11.8155	144.0000
12.0748	137.0000
12.3342	138.0000
12.5935	158.0000
12.8529	165.0000
13.1122	136.0000
13.3716	140.0000
13.6309	156.0000
13.8903	128.0000
14.1496	128.0000
14.4090	134.0000
14.6683	125.0000
14.9277	132.0000
15.1870	152.0000
15.4464	124.0000
15.7057	160.0000
15.9651	146.0000
16.2244	145.0000
16.4838	141.0000
16.7431	139.0000
17.0025	176.0000
17.2618	165.0000
17.5212	174.0000
17.7805	192.0000
18.0399	165.0000
18.2992	199.0000
18.5586	183.0000
18.8179	182.0000
19.0773	192.0000
19.3366	197.0000
19.5960	186.0000
19.8553	185.0000
20.1147	172.0000
20.3740	196.0000
20.6334	195.0000
20.8927	232.0000
21.1521	189.0000
21.4114	165.0000
21.6708	172.0000
21.9301	156.0000
22.1895	177.0000
22.4488	189.0000
22.7082	183.0000
22.9675	163.0000
23.2269	171.0000
23.4863	162.0000
23.7456	152.0000
24.0050	127.0000
24.2643	153.0000
24.5237	142.0000
24.7830	144.0000
25.0424	152.0000
25.3017	134.0000
25.5611	157.0000
25.8204	140.0000
26.0798	139.0000
26.3391	145.0000
26.5985	127.0000
26.8578	142.0000
27.1172	124.0000
27.3765	127.0000
27.6359	130.0000
27.8952	135.0000
28.1546	114.0000
28.4139	111.0000
28.6733	125.0000
28.9326	123.0000
29.1920	94.0000
29.4513	105.0000
29.7107	98.0000
29.9700	103.0000
30.2294	107.0000
30.4887	104.0000
30.7481	97.0000
31.0074	103.0000
31.2668	102.0000
31.5261	88.0000
31.7855	99.0000
32.0448	85.0000
32.3042	69.0000
32.5635	97.0000
32.8229	84.0000
33.0822	76.0000
33.3416	90.0000
33.6009	104.0000
33.8603	81.0000
34.1196	80.0000
34.3790	76.0000
34.6383	75.0000
34.8977	74.0000
35.1570	66.0000
35.4164	67.0000
35.6757	58.0000
35.9351	96.0000
36.1944	55.0000
36.4538	74.0000
36.7132	82.0000
36.9725	73.0000
37.2319	85.0000
37.4912	332.0000
37.7506	84.0000
38.0099	72.0000
38.2693	61.0000
38.5286	76.0000
38.7880	71.0000
39.0473	62.0000
39.3067	75.0000
39.5660	59.0000
39.8254	61.0000
40.0847	69.0000
40.3441	75.0000
40.6034	76.0000
40.8628	58.0000
41.1221	67.0000
41.3815	70.0000
41.6408	66.0000
41.9002	71.0000
42.1595	84.0000
42.4189	73.0000
42.6782	86.0000
42.9376	110.0000
43.1969	185.0000
43.4563	2290
43.7156	532.0000
43.9750	98.0000
44.2343	84.0000
44.4937	73.0000
44.7530	77.0000
45.0124	66.0000
45.2717	60.0000
45.5311	60.0000
45.7904	56.0000
46.0498	75.0000
46.3091	48.0000
46.5685	61.0000
46.8278	59.0000
47.0872	76.0000
47.3465	52.0000
47.6059	59.0000
47.8652	65.0000
48.1246	58.0000
48.3839	66.0000
48.6433	67.0000
48.9026	51.0000
49.1620	67.0000
49.4213	64.0000
49.6807	40.0000
49.9401	76.0000
50.1994	55.0000
50.4588	64.0000
50.7181	66.0000
50.9775	67.0000
51.2368	53.0000
51.4962	72.0000
51.7555	59.0000
52.0149	49.0000
52.2742	60.0000
52.5336	70.0000
52.7929	64.0000
53.0523	63.0000
53.3116	61.0000
53.5710	62.0000
53.8303	69.0000
54.0897	69.0000
54.3490	67.0000
54.6084	68.0000
54.8677	56.0000
55.1271	72.0000
55.3864	76.0000
55.6458	58.0000
55.9051	78.0000
56.1645	60.0000
56.4238	93.0000
56.6832	76.0000
56.9425	54.0000
57.2019	83.0000
57.4612	96.0000
57.7206	80.0000
57.9799	75.0000
58.2393	73.0000
58.4986	85.0000
58.7580	81.0000
59.0173	86.0000
59.2767	89.0000
59.5360	87.0000
59.7954	87.0000
60.0547	90.0000
60.3141	59.0000
60.5734	73.0000
60.8328	85.0000
61.0921	89.0000
61.3515	71.0000
61.6108	93.0000
61.8702	77.0000
62.1295	79.0000
62.3889	106.0000
62.6482	81.0000
62.9076	232.0000
63.1670	1311
63.4263	412.0000
63.6857	122.0000
63.9450	75.0000
64.2044	83.0000
64.4637	61.0000
64.7231	80.0000
64.9824	55.0000
65.2418	65.0000
65.5011	67.0000
65.7605	78.0000
66.0198	58.0000
66.2792	75.0000
66.5385	65.0000
66.7979	68.0000
67.0572	63.0000
67.3166	69.0000
67.5759	51.0000
67.8353	67.0000
68.0946	49.0000
68.3540	56.0000
68.6133	51.0000
68.8727	54.0000
69.1320	65.0000
69.3914	49.0000
69.6507	61.0000
69.9101	63.0000
70.1694	50.0000
70.4288	53.0000
70.6881	65.0000
70.9475	57.0000
71.2068	54.0000
71.4662	64.0000
71.7255	61.0000
71.9849	53.0000
72.2442	52.0000
72.5036	58.0000
72.7629	50.0000
73.0223	46.0000
73.2816	67.0000
73.5410	51.0000
73.8003	51.0000
74.0597	44.0000
74.3190	47.0000
74.5784	43.0000
74.8377	52.0000
75.0971	49.0000
75.3564	64.0000
75.6158	133.0000
75.8751	138.0000
76.1345	82.0000
76.3939	49.0000
76.6532	49.0000
76.9126	34.0000
77.1719	31.0000
77.4313	60.0000
77.6906	43.0000
77.9500	46.0000
78.2093	41.0000
78.4687	48.0000
78.7280	48.0000
78.9874	44.0000
79.2467	43.0000
79.5061	71.0000
79.7654	233.0000
79.9877	176.0000